MASS=Monoisotopic
BEGIN IONS
TITLE=File73 Spectrum1 scans: 750
PEPMASS=452.94336 20500.01758
CHARGE=4+
RTINSECONDS=389
SCANS=750
144.53258 506.03
144.72945 539.47
144.73656 585.476
148.57938 2628.08
173.61441 607.637
215.76752 644.092
335.13263 1161.12
340.22775 691.471
340.25693 1090.78
340.27347 2678.3
340.28735 2664.22
340.29645 1444.12
344.13928 813.529
374.90329 1103.65
378.64951 657.288
393.18613 981.651
400.20633 3232.71
401.20450 800.2
418.53000 875.913
422.66699 759.872
434.73007 3781.53
435.23209 802.04
439.43668 3200.46
439.68793 5012.93
439.93665 4257.79
440.18845 1205.79
443.73566 897.014
443.93906 22440.4
444.18958 26275.5
444.21674 738.968
444.23697 1953.61
444.44037 11321.6
444.69141 3331.67
448.44150 5007.58
448.69250 4652.64
452.26874 657.547
474.71866 1150.26
475.21808 695.531
513.20453 811.339
518.23352 831.654
521.13959 701.177
561.75079 1144.36
605.26843 1039.48
676.32849 1829.38
677.32971 819.495
702.37726 946.556
945.18939 2314.94
945.24774 2059.44
1562.46753 2487.5
1562.57507 1378.65
END IONS

BEGIN IONS
TITLE=File73 Spectrum5 scans: 756
PEPMASS=452.94336 34361.98438
CHARGE=4+
RTINSECONDS=391
SCANS=756
144.76009 590.476
144.76436 613.259
144.76726 638.822
148.57970 2519.62
173.65337 711.891
224.01021 624.298
258.40680 687.8
335.13306 2449.84
340.32834 662.533
340.34555 2755.18
340.35861 2881.89
340.36810 1183.22
344.13861 645.107
358.67422 1082.89
374.83591 1043.59
374.90387 1034.85
378.64917 1111.99
387.65372 705.239
393.18646 820.749
400.20642 904.672
400.70847 1138.07
418.20270 1253.21
418.53036 1105.84
422.16510 861.754
434.72986 2771.44
435.23221 816.598
439.43661 4002.58
439.68729 5697.4
439.93668 3859.93
440.18839 1139.1
443.73499 2831.64
443.93900 40055.5
444.18967 39945.9
444.44028 26050.8
444.69070 6240.18
447.85907 690.345
448.44174 8407.81
448.69254 3265.37
452.22995 1007.75
452.24884 943.186
474.71732 3977.53
475.22043 898.829
503.69751 828.581
513.20380 1060.04
518.23499 956.154
518.73492 2856.22
548.16461 720.33
561.74982 3089.72
562.25079 2202.07
603.92432 1062.4
676.32623 1013.82
945.41504 2053.45
945.46088 838.976
1562.77844 3058.77
1562.89111 1121.58
END IONS

