MASS=Monoisotopic
BEGIN IONS
TITLE=File75 Spectrum2 scans: 1046
PEPMASS=560.26831 30933.20313
CHARGE=1+
RTINSECONDS=559
SCANS=1046
129.228 19.7439
157.734 4.32817
185.215 5.33553
186.239 22.5694
204.277 47.3992
210.271 7.3207
242.221 23.4835
270.199 16.2373
291.011 9.04037
311.172 3.67105
321.415 5.57636
334.207 7.28941
342.279 13.5795
351.133 10.536
352.355 21.0031
356.941 5.82558
370.416 8.74887
388.344 35.9399
391.944 7.01008
396.298 10.9565
397.067 9.17318
414.345 8.79604
427.404 33.3267
445.373 91.6128
446.445 5.93256
542.290 25.2944
543.063 4.76049
543.684 9.00129
560.314 233.162
561.346 37.4919
562.490 4.74796
END IONS

BEGIN IONS
TITLE=File75 Spectrum3 scans: 1047
PEPMASS=472.90009 9616.70898
CHARGE=3+
RTINSECONDS=559
SCANS=1047
128.067 4.11985
129.242 13.8497
130.465 7.10167
139.263 6.18946
211.004 11.6737
240.203 5.85584
284.338 13.5652
331.360 11.1828
354.147 6.22036
371.021 6.28294
372.050 7.61152
438.830 5.36525
473.046 16.2009
486.826 20.059
500.974 10.1788
533.420 16.2661
538.411 3.844
553.336 8.08484
554.030 14.5522
571.301 12.4425
576.483 12.7913
586.316 6.35079
628.150 4.29764
643.390 6.22645
663.374 6.74981
700.589 6.80712
730.564 9.7494
812.345 6.86575
838.984 13.3172
960.561 5.80337
1068.449 19.8798
1088.552 6.26535
END IONS

BEGIN IONS
TITLE=File75 Spectrum4 scans: 1048
PEPMASS=560.26831 30933.20313
CHARGE=1+
RTINSECONDS=559
SCANS=1048
129.065 9.30592
147.266 9.18517
157.274 5.83182
185.124 3.59497
186.276 12.0889
187.009 8.45606
204.137 29.9473
205.144 6.89699
242.087 5.35679
243.120 4.54925
291.310 14.1591
297.116 4.42172
300.073 7.19785
317.146 5.69422
328.420 7.81188
339.266 16.2889
370.205 9.24813
378.977 6.01951
388.179 19.0832
389.343 4.57454
427.327 16.3853
437.375 9.89504
445.264 75.583
446.323 28.0266
542.385 10.2413
560.338 46.9174
561.425 82.3548
END IONS

